/////////////////////////////////////////////////////////////////////////////////
/// Profile Data Ascii Dump (XRD)                                             ///
/////////////////////////////////////////////////////////////////////////////////

  Group     : Standard
  Data      : 154_FeS
  File Name : 154_FeS.RAW

# Profile Datafile
          comment             = 154_FeS 
          date & time         = 10-11-22 12:09:12 

# Measurement Condition
    X-ray tube
          target              = Co 
          voltage             = 40.0 (kV)
          current             = 30.0 (mA)
    Slits
          divergence slit     = 1.00000 (deg) 
          scatter slit        = 1.00000 (deg) 
          receiving slit      = 0.30000 (mm)  
    Scanning
          drive axis          = Theta-2Theta 
          scan range          =    5.000 -   80.000 
          scan mode           = Continuous Scan 
          scan speed          =   2.0000 (deg/min) 
          sampling pitch      =   0.0200 (deg) 
          preset time         =   0.60 (sec) 

# Data      [ Total No. = 3751 ]
  <2Theta>   <   I   >
     5.0000       160
     5.0200       134
     5.0400       140
     5.0600       134
     5.0800        94
     5.1000       120
     5.1200       100
     5.1400       124
     5.1600       124
     5.1800       130
     5.2000       124
     5.2200       116
     5.2400       124
     5.2600       116
     5.2800       112
     5.3000        98
     5.3200       118
     5.3400       124
     5.3600        90
     5.3800       128
     5.4000       104
     5.4200       112
     5.4400        98
     5.4600       126
     5.4800       114
     5.5000       118
     5.5200       120
     5.5400       102
     5.5600        94
     5.5800       120
     5.6000       106
     5.6200       116
     5.6400       102
     5.6600       112
     5.6800       110
     5.7000       102
     5.7200       116
     5.7400       114
     5.7600       116
     5.7800        94
     5.8000       124
     5.8200       120
     5.8400       116
     5.8600       100
     5.8800       124
     5.9000       116
     5.9200        94
     5.9400       100
     5.9600        98
     5.9800       106
     6.0000       100
     6.0200       104
     6.0400       110
     6.0600       118
     6.0800        92
     6.1000        94
     6.1200        98
     6.1400       104
     6.1600       108
     6.1800        94
     6.2000        98
     6.2200       114
     6.2400        86
     6.2600       110
     6.2800        92
     6.3000       100
     6.3200        92
     6.3400       112
     6.3600        96
     6.3800        98
     6.4000        90
     6.4200        94
     6.4400       122
     6.4600        92
     6.4800        88
     6.5000        84
     6.5200        88
     6.5400       102
     6.5600        96
     6.5800        82
     6.6000       112
     6.6200        94
     6.6400       106
     6.6600        94
     6.6800       108
     6.7000       118
     6.7200        86
     6.7400       104
     6.7600        98
     6.7800        92
     6.8000        90
     6.8200        90
     6.8400       100
     6.8600        76
     6.8800        92
     6.9000        98
     6.9200        90
     6.9400       100
     6.9600       108
     6.9800        96
     7.0000        92
     7.0200        94
     7.0400       100
     7.0600        84
     7.0800        98
     7.1000        90
     7.1200       102
     7.1400        86
     7.1600       106
     7.1800        84
     7.2000       100
     7.2200       100
     7.2400       104
     7.2600       100
     7.2800        92
     7.3000        90
     7.3200        94
     7.3400        96
     7.3600        84
     7.3800       100
     7.4000        86
     7.4200        86
     7.4400        88
     7.4600        80
     7.4800       100
     7.5000        96
     7.5200        94
     7.5400        70
     7.5600        90
     7.5800        94
     7.6000        76
     7.6200        90
     7.6400        86
     7.6600        70
     7.6800        98
     7.7000        88
     7.7200        78
     7.7400       100
     7.7600        84
     7.7800        86
     7.8000        76
     7.8200        80
     7.8400        96
     7.8600        80
     7.8800        86
     7.9000        80
     7.9200       102
     7.9400        96
     7.9600        80
     7.9800        68
     8.0000        92
     8.0200        84
     8.0400        74
     8.0600        84
     8.0800        82
     8.1000        82
     8.1200        84
     8.1400       100
     8.1600        84
     8.1800        64
     8.2000        88
     8.2200        70
     8.2400        86
     8.2600        96
     8.2800        86
     8.3000        86
     8.3200        86
     8.3400        92
     8.3600        88
     8.3800       114
     8.4000        84
     8.4200        62
     8.4400        86
     8.4600        80
     8.4800        84
     8.5000        96
     8.5200        70
     8.5400        98
     8.5600        82
     8.5800        72
     8.6000        84
     8.6200        98
     8.6400        84
     8.6600        82
     8.6800        90
     8.7000        94
     8.7200        88
     8.7400        72
     8.7600        84
     8.7800        82
     8.8000        74
     8.8200        90
     8.8400        90
     8.8600        84
     8.8800        72
     8.9000        86
     8.9200        88
     8.9400       100
     8.9600        90
     8.9800        94
     9.0000        82
     9.0200        72
     9.0400        78
     9.0600        80
     9.0800        76
     9.1000        94
     9.1200        98
     9.1400        82
     9.1600        80
     9.1800        92
     9.2000        86
     9.2200        84
     9.2400        78
     9.2600        92
     9.2800        78
     9.3000        82
     9.3200        76
     9.3400        82
     9.3600        92
     9.3800        86
     9.4000        82
     9.4200        66
     9.4400        78
     9.4600        74
     9.4800        90
     9.5000        92
     9.5200        76
     9.5400        88
     9.5600        74
     9.5800        80
     9.6000        80
     9.6200        78
     9.6400        80
     9.6600        66
     9.6800        92
     9.7000        86
     9.7200        68
     9.7400        78
     9.7600        74
     9.7800        78
     9.8000        74
     9.8200        90
     9.8400        72
     9.8600        72
     9.8800        86
     9.9000        94
     9.9200        88
     9.9400        72
     9.9600        86
     9.9800        70
    10.0000        86
    10.0200        86
    10.0400        78
    10.0600        78
    10.0800        90
    10.1000        84
    10.1200        72
    10.1400        88
    10.1600        76
    10.1800       102
    10.2000        86
    10.2200        68
    10.2400        78
    10.2600        68
    10.2800        84
    10.3000        82
    10.3200        82
    10.3400        82
    10.3600        82
    10.3800        70
    10.4000        68
    10.4200        70
    10.4400        70
    10.4600        68
    10.4800        96
    10.5000        76
    10.5200        78
    10.5400        94
    10.5600        72
    10.5800        74
    10.6000        84
    10.6200        60
    10.6400        86
    10.6600        84
    10.6800        74
    10.7000        82
    10.7200        78
    10.7400        80
    10.7600        78
    10.7800        72
    10.8000        88
    10.8200        80
    10.8400        74
    10.8600        76
    10.8800        90
    10.9000        80
    10.9200        82
    10.9400        58
    10.9600        98
    10.9800        90
    11.0000        86
    11.0200        78
    11.0400        64
    11.0600        72
    11.0800        66
    11.1000        72
    11.1200        88
    11.1400        66
    11.1600        78
    11.1800        86
    11.2000        74
    11.2200        86
    11.2400        70
    11.2600        80
    11.2800        68
    11.3000        68
    11.3200        84
    11.3400        82
    11.3600        74
    11.3800        88
    11.4000        74
    11.4200        84
    11.4400        98
    11.4600        78
    11.4800        90
    11.5000        86
    11.5200        70
    11.5400        86
    11.5600        68
    11.5800        90
    11.6000        74
    11.6200        90
    11.6400        68
    11.6600        84
    11.6800        64
    11.7000        84
    11.7200        78
    11.7400        80
    11.7600       108
    11.7800        82
    11.8000        84
    11.8200        82
    11.8400        68
    11.8600        82
    11.8800        72
    11.9000        78
    11.9200        78
    11.9400        76
    11.9600        90
    11.9800        88
    12.0000        82
    12.0200        88
    12.0400       102
    12.0600        96
    12.0800        78
    12.1000        86
    12.1200        78
    12.1400        78
    12.1600        76
    12.1800        92
    12.2000        88
    12.2200        88
    12.2400        94
    12.2600        94
    12.2800        84
    12.3000        74
    12.3200        92
    12.3400        80
    12.3600        94
    12.3800        88
    12.4000        96
    12.4200        96
    12.4400        94
    12.4600        86
    12.4800        76
    12.5000        80
    12.5200       106
    12.5400        98
    12.5600        82
    12.5800        80
    12.6000        92
    12.6200        80
    12.6400        98
    12.6600        88
    12.6800        72
    12.7000        74
    12.7200        80
    12.7400       132
    12.7600        76
    12.7800        98
    12.8000        90
    12.8200        82
    12.8400        74
    12.8600       100
    12.8800        92
    12.9000        72
    12.9200        90
    12.9400        96
    12.9600       102
    12.9800        80
    13.0000        94
    13.0200        92
    13.0400        76
    13.0600        80
    13.0800        90
    13.1000        78
    13.1200        72
    13.1400        78
    13.1600        80
    13.1800        82
    13.2000       102
    13.2200        78
    13.2400       104
    13.2600        88
    13.2800        96
    13.3000        76
    13.3200        94
    13.3400        78
    13.3600        86
    13.3800        86
    13.4000        76
    13.4200        92
    13.4400        80
    13.4600        76
    13.4800        98
    13.5000       102
    13.5200        74
    13.5400        70
    13.5600        80
    13.5800        76
    13.6000        80
    13.6200        78
    13.6400        78
    13.6600        94
    13.6800       100
    13.7000        94
    13.7200        78
    13.7400        78
    13.7600        80
    13.7800       100
    13.8000        66
    13.8200        80
    13.8400        86
    13.8600        64
    13.8800        94
    13.9000        80
    13.9200        80
    13.9400        80
    13.9600       112
    13.9800        78
    14.0000       102
    14.0200        90
    14.0400        94
    14.0600        86
    14.0800        92
    14.1000        84
    14.1200        98
    14.1400        86
    14.1600       100
    14.1800        88
    14.2000        82
    14.2200        90
    14.2400        98
    14.2600        74
    14.2800        76
    14.3000       102
    14.3200        80
    14.3400        86
    14.3600       106
    14.3800        92
    14.4000        88
    14.4200        74
    14.4400        86
    14.4600        74
    14.4800        94
    14.5000        78
    14.5200        86
    14.5400       102
    14.5600        92
    14.5800       100
    14.6000        96
    14.6200        84
    14.6400       100
    14.6600        90
    14.6800        92
    14.7000        96
    14.7200        94
    14.7400        94
    14.7600        86
    14.7800        82
    14.8000       120
    14.8200        94
    14.8400        82
    14.8600        80
    14.8800        90
    14.9000        86
    14.9200        78
    14.9400        94
    14.9600        84
    14.9800        92
    15.0000        84
    15.0200        92
    15.0400        82
    15.0600        84
    15.0800        94
    15.1000        96
    15.1200        96
    15.1400        90
    15.1600        98
    15.1800        96
    15.2000        90
    15.2200        66
    15.2400        84
    15.2600        84
    15.2800        98
    15.3000        92
    15.3200        86
    15.3400        78
    15.3600       100
    15.3800       108
    15.4000        84
    15.4200        72
    15.4400        74
    15.4600       110
    15.4800        84
    15.5000        84
    15.5200        92
    15.5400        94
    15.5600       104
    15.5800        96
    15.6000        86
    15.6200        98
    15.6400        90
    15.6600        86
    15.6800        82
    15.7000       100
    15.7200       100
    15.7400        90
    15.7600        96
    15.7800        86
    15.8000        88
    15.8200       104
    15.8400        88
    15.8600        94
    15.8800        94
    15.9000        82
    15.9200        78
    15.9400       106
    15.9600        94
    15.9800        84
    16.0000        94
    16.0200        92
    16.0400        98
    16.0600        88
    16.0800        96
    16.1000        92
    16.1200        96
    16.1400       106
    16.1600       104
    16.1800        68
    16.2000        90
    16.2200        74
    16.2400       102
    16.2600       100
    16.2800       110
    16.3000        90
    16.3200        86
    16.3400       108
    16.3600       100
    16.3800        70
    16.4000        78
    16.4200       110
    16.4400        96
    16.4600        88
    16.4800        94
    16.5000        86
    16.5200        92
    16.5400        98
    16.5600        98
    16.5800        98
    16.6000        82
    16.6200        90
    16.6400        84
    16.6600        98
    16.6800        80
    16.7000        86
    16.7200        98
    16.7400        86
    16.7600       102
    16.7800        94
    16.8000        80
    16.8200       108
    16.8400       100
    16.8600        88
    16.8800        92
    16.9000        84
    16.9200        88
    16.9400       110
    16.9600        92
    16.9800        92
    17.0000        80
    17.0200        80
    17.0400       106
    17.0600        96
    17.0800        92
    17.1000        88
    17.1200        90
    17.1400       114
    17.1600        76
    17.1800        92
    17.2000        84
    17.2200        76
    17.2400        86
    17.2600        98
    17.2800        84
    17.3000        88
    17.3200        96
    17.3400       130
    17.3600        90
    17.3800        88
    17.4000        88
    17.4200        94
    17.4400        78
    17.4600       106
    17.4800       102
    17.5000        94
    17.5200        90
    17.5400        98
    17.5600       100
    17.5800        84
    17.6000        92
    17.6200       108
    17.6400        96
    17.6600       104
    17.6800        88
    17.7000        94
    17.7200        86
    17.7400        88
    17.7600        92
    17.7800        98
    17.8000        80
    17.8200       102
    17.8400        90
    17.8600       106
    17.8800        90
    17.9000        90
    17.9200        94
    17.9400       100
    17.9600        90
    17.9800        94
    18.0000       110
    18.0200        84
    18.0400        86
    18.0600        96
    18.0800        98
    18.1000        96
    18.1200       106
    18.1400        76
    18.1600        90
    18.1800        82
    18.2000        90
    18.2200        94
    18.2400        88
    18.2600        96
    18.2800        92
    18.3000        90
    18.3200        82
    18.3400       100
    18.3600        98
    18.3800       104
    18.4000        80
    18.4200       108
    18.4400        96
    18.4600       100
    18.4800        86
    18.5000       102
    18.5200        86
    18.5400        92
    18.5600        94
    18.5800       106
    18.6000       102
    18.6200        76
    18.6400        82
    18.6600        94
    18.6800       100
    18.7000        66
    18.7200        96
    18.7400        86
    18.7600        94
    18.7800        82
    18.8000       106
    18.8200       106
    18.8400        92
    18.8600       108
    18.8800        80
    18.9000        82
    18.9200        76
    18.9400        96
    18.9600        84
    18.9800        94
    19.0000        82
    19.0200       110
    19.0400       100
    19.0600        88
    19.0800        96
    19.1000        80
    19.1200        94
    19.1400        88
    19.1600        84
    19.1800        70
    19.2000        90
    19.2200        98
    19.2400        82
    19.2600        98
    19.2800        86
    19.3000        82
    19.3200        90
    19.3400        86
    19.3600        90
    19.3800        68
    19.4000        80
    19.4200        96
    19.4400        94
    19.4600        94
    19.4800        92
    19.5000        72
    19.5200       104
    19.5400        88
    19.5600       106
    19.5800        74
    19.6000        78
    19.6200        86
    19.6400       102
    19.6600        86
    19.6800       104
    19.7000        98
    19.7200       106
    19.7400        98
    19.7600        92
    19.7800        82
    19.8000        90
    19.8200        94
    19.8400        98
    19.8600        92
    19.8800       110
    19.9000        86
    19.9200        90
    19.9400        96
    19.9600        98
    19.9800        96
    20.0000        78
    20.0200       104
    20.0400       106
    20.0600        88
    20.0800        76
    20.1000       102
    20.1200       120
    20.1400        96
    20.1600       100
    20.1800        96
    20.2000        88
    20.2200       106
    20.2400       104
    20.2600       102
    20.2800        86
    20.3000        78
    20.3200        68
    20.3400        78
    20.3600       100
    20.3800        88
    20.4000        94
    20.4200        98
    20.4400        90
    20.4600        88
    20.4800       100
    20.5000        98
    20.5200        92
    20.5400        68
    20.5600       106
    20.5800        92
    20.6000       100
    20.6200        92
    20.6400        82
    20.6600        80
    20.6800        78
    20.7000        88
    20.7200       104
    20.7400       104
    20.7600        96
    20.7800        84
    20.8000        84
    20.8200        74
    20.8400       104
    20.8600        70
    20.8800        84
    20.9000        88
    20.9200        98
    20.9400        98
    20.9600        92
    20.9800       102
    21.0000        72
    21.0200        94
    21.0400       102
    21.0600        92
    21.0800        90
    21.1000        86
    21.1200        70
    21.1400        88
    21.1600       104
    21.1800        96
    21.2000       102
    21.2200       112
    21.2400        84
    21.2600        88
    21.2800        76
    21.3000        70
    21.3200        92
    21.3400        98
    21.3600        94
    21.3800        82
